Sample,Frequency(Hz),Amplitude CH1(dBV)
0,0,-7.44124
1,1.5625,-11.7685
2,3.125,-19.1485
3,4.6875,-25.6827
4,6.25,-25.2585
5,7.8125,-22.4935
6,9.375,-31.4435
7,10.9375,-35.2513
8,12.5,-31.974
9,14.0625,-27.4423
10,15.625,-35.3651
11,17.1875,-40.2776
12,18.75,-35.9119
13,20.3125,-33.0077
14,21.875,-33.8989
15,23.4375,-46.0529
16,25,-52.0964
17,26.5625,-46.293
18,28.125,-44.2304
19,29.6875,-38.0367
20,31.25,-36.9028
21,32.8125,-39.0844
22,34.375,-43.8092
23,35.9375,-49.2034
24,37.5,-47.7465
25,39.0625,-47.4574
26,40.625,-44.1853
27,42.1875,-47.6387
28,43.75,-41.7739
29,45.3125,-46.9662
30,46.875,-43.4605
31,48.4375,-41.2836
32,50,-42.4448
33,51.5625,-46.2986
34,53.125,-48.8827
35,54.6875,-51.8823
36,56.25,-43.3606
37,57.8125,-30.7117
38,59.375,-14.5388
39,60.9375,-15.8175
40,62.5,-36.6033
41,64.0625,-54.7678
42,65.625,-48.3934
43,67.1875,-57.0563
44,68.75,-56.9839
45,70.3125,-55.6516
46,71.875,-53.0216
47,73.4375,-45.1333
48,75,-23.8315
49,76.5625,-17.0326
50,78.125,-25.4033
51,79.6875,-49.8963
52,81.25,-39.4978
53,82.8125,-46.3767
54,84.375,-52.1444
55,85.9375,-59.0878
56,87.5,-55.3251
57,89.0625,-58.623
58,90.625,-76.1982
59,92.1875,-57.0013
60,93.75,-56.2977
61,95.3125,-69.7332
62,96.875,-50.1899
63,98.4375,-54.4597
64,100,-33.8976
65,101.563,-19.954
66,103.125,-21.9129
67,104.688,-42.4918
68,106.25,-66.0243
69,107.813,-53.1526
70,109.375,-54.8439
71,110.938,-52.0352
72,112.5,-50.6283
73,114.063,-50.0262
74,115.625,-52.0184
75,117.188,-53.1336
76,118.75,-27.6522
77,120.313,-23.2527
78,121.875,-33.6921
79,123.438,-64.5508
80,125,-48.5834
81,126.563,-44.5515
82,128.125,-48.543
83,129.688,-54.5157
84,131.25,-68.7643
85,132.813,-62.5178
86,134.375,-70.9382
87,135.938,-56.4336
88,137.5,-59.3455
89,139.063,-42.4001
90,140.625,-35.3268
91,142.188,-42.5376
92,143.75,-62.6783
93,145.313,-90.3878
94,146.875,-58.1197
95,148.438,-59.5571
96,150,-60.3359
97,151.563,-41.48
98,153.125,-33.3438
99,154.688,-33.619
100,156.25,-51.2994
101,157.813,-59.0308
102,159.375,-53.0411
103,160.938,-53.9125
104,162.5,-58.9104
105,164.063,-54.6155
106,165.625,-54.1441
107,167.188,-45.9319
108,168.75,-51.5688
109,170.313,-71.0031
110,171.875,-64.8234
111,173.438,-67.7195
112,175,-69.458
113,176.563,-89.974
114,178.125,-65.5587
115,179.688,-61.805
116,181.25,-70.9319
117,182.813,-49.9509
118,184.375,-42.7919
119,185.938,-47.4096
120,187.5,-52.125
121,189.063,-45.2804
122,190.625,-48.3965
123,192.188,-57.1697
124,193.75,-52.0789
125,195.313,-43.3115
126,196.875,-47.6789
127,198.438,-42.5326
128,200,-25.3489
129,201.563,-25.6551
130,203.125,-27.8184
131,204.688,-21.1334
132,206.25,-27.7505
133,207.813,-59.1023
134,209.375,-52.5474
135,210.938,-66.4526
136,212.5,-50.1572
137,214.063,-58.864
138,215.625,-53.4937
139,217.188,-55.4225
140,218.75,-64.9144
141,220.313,-60.5514
142,221.875,-53.787
143,223.438,-56.1706
144,225,-50.6164
145,226.563,-59.4406
146,228.125,-28.7146
147,229.688,-22.7582
148,231.25,-32.0152
149,232.813,-62.6007
150,234.375,-63.1939
151,235.938,-70.9641
152,237.5,-62.3049
153,239.063,-36.7676
154,240.625,-24.8455
155,242.188,-25.9607
156,243.75,-41.1109
157,245.313,-58.2758
158,246.875,-53.6449
159,248.438,-58.5129
160,250,-58.2779
161,251.563,-71.2609
162,253.125,-68.6186
163,254.688,-62.4738
164,256.25,-55.172
165,257.813,-55.3126
166,259.375,-64.2703
167,260.938,-48.6847
168,262.5,-46.9962
169,264.063,-57.2663
170,265.625,-61.9296
171,267.188,-60.6322
172,268.75,-52.669
173,270.313,-53.2122
174,271.875,-68.2422
175,273.438,-62.1253
176,275,-71.2159
177,276.563,-63.3305
178,278.125,-60.9315
179,279.688,-66.3167
180,281.25,-55.3403
181,282.813,-64.1587
182,284.375,-76.4058
183,285.938,-41.2906
184,287.5,-35.1761
185,289.063,-46.4253
186,290.625,-55.4763
187,292.188,-54.9008
188,293.75,-56.9846
189,295.313,-67.0175
190,296.875,-58.6138
191,298.438,-56.9537
192,300,-50.8884
193,301.563,-55.2885
194,303.125,-62.4724
195,304.688,-49.4072
196,306.25,-31.1821
197,307.813,-29.7276
198,309.375,-44.1814
199,310.938,-55.7545
200,312.5,-55.7672
201,314.063,-57.129
202,315.625,-45.5208
203,317.188,-45.5694
204,318.75,-52.9321
205,320.313,-53.318
206,321.875,-65.1733
207,323.438,-64.3272
208,325,-53.3963
209,326.563,-54.7822
210,328.125,-45.9447
211,329.688,-34.4468
212,331.25,-38.9802
213,332.813,-59.6243
214,334.375,-52.7642
215,335.938,-52.7959
216,337.5,-39.1263
217,339.063,-37.285
218,340.625,-43.1564
219,342.188,-54.8889
220,343.75,-54.9818
221,345.313,-58.7526
222,346.875,-56.599
223,348.438,-58.957
224,350,-61.6875
225,351.563,-68.1004
226,353.125,-54.736
227,354.688,-52.0158
228,356.25,-56.7688
229,357.813,-52.3755
230,359.375,-46.1589
231,360.938,-51.8063
232,362.5,-56.9103
233,364.063,-65.9656
234,365.625,-58.8017
235,367.188,-55.6371
236,368.75,-59.5867
237,370.313,-57.1454
238,371.875,-61.5012
239,373.438,-60.3897
240,375,-55.9125
241,376.563,-58.6953
242,378.125,-55.082
243,379.688,-50.3581
244,381.25,-54.4222
245,382.813,-42.9075
246,384.375,-44.5996
247,385.938,-54.6018
248,387.5,-56.8994
249,389.063,-51.6905
250,390.625,-51.6143
251,392.188,-49.7609
252,393.75,-59.7742
253,395.313,-49.451
254,396.875,-31.7107
255,398.438,-31.871
